# time[fs] length[Å] length[Å] length[Å] length[Å] angle[deg] angle[deg] angle[deg]
 0   1.090   1.090   1.090   109.471   109.471   109.471
 1   1.086   1.127   1.092   106.223   110.034   109.868
 2   1.086   1.156   1.095   103.305   110.559   110.203
 3   1.091   1.167   1.098   100.903   111.064   110.436
 4   1.098   1.159   1.100   99.146   111.535   110.533
 5   1.105   1.134   1.100   98.122   111.932   110.471
 6   1.110   1.098   1.099   97.898   112.191   110.237
 7   1.112   1.061   1.096   98.508   112.241   109.849
 8   1.110   1.038   1.093   99.923   112.023   109.351
 9   1.104   1.039   1.089   102.009   111.525   108.805
10   1.096   1.063   1.088   104.535   110.812   108.270
11   1.089   1.100   1.088   107.263   110.009   107.788
12   1.083   1.137   1.090   110.001   109.236   107.404
13   1.082   1.163   1.094   112.616   108.570   107.160
14   1.086   1.171   1.098   115.000   108.039   107.087
15   1.093   1.159   1.101   117.059   107.633   107.192
16   1.101   1.131   1.103   118.696   107.331   107.467
17   1.108   1.092   1.103   119.803   107.116   107.904
18   1.110   1.055   1.101   120.257   106.985   108.508
19   1.106   1.034   1.098   119.933   106.947   109.287
20   1.098   1.037   1.094   118.785   107.019   110.227
21   1.088   1.063   1.090   116.903   107.226   111.257
22   1.080   1.101   1.089   114.512   107.583   112.255
23   1.077   1.137   1.089   111.882   108.089   113.091
24   1.081   1.161   1.092   109.259   108.723   113.663
25   1.090   1.167   1.096   106.823   109.442   113.904
26   1.101   1.153   1.100   104.697   110.181   113.781
27   1.111   1.124   1.104   102.965   110.861   113.293
28   1.116   1.086   1.105   101.693   111.399   112.471
29   1.116   1.052   1.103   100.949   111.718   111.380
30   1.110   1.035   1.099   100.775   111.764   110.103
31   1.101   1.043   1.094   101.172   111.543   108.731
32   1.090   1.071   1.089   102.084   111.140   107.351
33   1.082   1.109   1.085   103.415   110.681   106.060
34   1.079   1.142   1.085   105.064   110.286   104.970
35   1.082   1.162   1.087   106.929   110.014   104.184
36   1.091   1.164   1.092   108.906   109.857   103.769
37   1.102   1.148   1.098   110.891   109.752   103.744
38   1.112   1.117   1.103   112.783   109.620   104.098
39   1.117   1.081   1.106   114.473   109.386   104.815
40   1.116   1.050   1.107   115.818   109.009   105.883
41   1.108   1.038   1.105   116.661   108.498   107.286
42   1.095   1.049   1.100   116.873   107.924   108.975
43   1.082   1.078   1.094   116.441   107.406   110.838
44   1.072   1.113   1.089   115.477   107.055   112.716
45   1.071   1.142   1.086   114.167   106.945   114.426
46   1.078   1.157   1.087   112.699   107.094   115.800
47   1.090   1.154   1.092   111.213   107.470   116.706
48   1.104   1.135   1.098   109.794   108.008   117.067
49   1.115   1.104   1.104   108.486   108.629   116.863
50   1.120   1.070   1.108   107.313   109.242   116.133
51   1.117   1.046   1.109   106.302   109.756   114.950
52   1.108   1.042   1.107   105.489   110.094   113.399
53   1.094   1.058   1.101   104.927   110.237   111.558
54   1.081   1.089   1.094   104.657   110.233   109.515
55   1.073   1.122   1.089   104.702   110.182   107.397
56   1.073   1.146   1.086   105.054   110.183   105.375
57   1.082   1.156   1.086   105.671   110.297   103.624
58   1.096   1.148   1.090   106.488   110.523   102.277
59   1.111   1.125   1.095   107.432   110.807   101.417
60   1.123   1.093   1.101   108.433   111.062   101.088
61   1.128   1.062   1.106   109.416   111.198   101.315
62   1.124   1.044   1.107   110.285   111.139   102.112
63   1.112   1.047   1.105   110.931   110.855   103.464
64   1.095   1.068   1.100   111.273   110.387   105.314
65   1.079   1.100   1.094   111.309   109.819   107.543
66   1.069   1.131   1.089   111.115   109.250   109.981
67   1.068   1.150   1.087   110.819   108.745   112.426
68   1.077   1.153   1.088   110.547   108.327   114.660
69   1.092   1.140   1.093   110.380   107.986   116.486
70   1.108   1.114   1.099   110.348   107.701   117.768
71   1.120   1.082   1.106   110.431   107.460   118.447
72   1.123   1.055   1.109   110.575   107.260   118.528
73   1.118   1.044   1.109   110.703   107.109   118.045
74   1.104   1.053   1.105   110.747   107.033   117.034
75   1.087   1.079   1.099   110.693   107.065   115.523
76   1.072   1.111   1.093   110.565   107.242   113.568
77   1.064   1.137   1.089   110.404   107.598   111.289
78   1.067   1.151   1.088   110.232   108.139   108.872
79   1.080   1.149   1.091   110.037   108.842   106.514
80   1.099   1.131   1.097   109.782   109.643   104.385
81   1.117   1.103   1.103   109.425   110.455   102.622
82   1.130   1.072   1.108   108.945   111.191   101.333
83   1.134   1.050   1.110   108.329   111.778   100.603
84   1.127   1.045   1.107   107.592   112.167   100.489
85   1.113   1.060   1.101   106.769   112.363   101.010
86   1.095   1.088   1.092   105.925   112.407   102.137
87   1.078   1.119   1.085   105.153   112.358   103.796
88   1.069   1.141   1.080   104.577   112.262   105.866
89   1.071   1.149   1.081   104.332   112.107   108.168
90   1.082   1.142   1.087   104.514   111.827   110.492
91   1.098   1.120   1.097   105.171   111.331   112.631
92   1.114   1.092   1.107   106.291   110.559   114.441
93   1.124   1.067   1.114   107.794   109.505   115.848
94   1.126   1.053   1.116   109.531   108.239   116.825
95   1.118   1.058   1.112   111.301   106.902   117.358
96   1.102   1.078   1.103   112.915   105.678   117.412
97   1.083   1.106   1.092   114.256   104.740   116.948
98   1.067   1.131   1.082   115.282   104.215   115.964
99   1.060   1.146   1.078   115.992   104.172   114.529
100   1.065   1.146   1.080   116.365   104.613   112.780
101   1.079   1.132   1.088   116.361   105.466   110.868
102   1.099   1.107   1.099   115.913   106.605   108.947
103   1.117   1.079   1.111   114.974   107.884   107.156
104   1.129   1.057   1.119   113.537   109.159   105.616
105   1.130   1.050   1.121   111.658   110.309   104.424
106   1.122   1.062   1.116   109.468   111.263   103.636
107   1.107   1.086   1.106   107.144   112.016   103.271
108   1.090   1.114   1.092   104.873   112.611   103.323
109   1.077   1.136   1.079   102.846   113.116   103.770
110   1.071   1.145   1.071   101.248   113.574   104.568
111   1.076   1.138   1.072   100.245   113.975   105.630
112   1.089   1.117   1.080   99.951   114.223   106.830
113   1.105   1.089   1.094   100.412   114.183   108.046
114   1.120   1.064   1.108   101.606   113.738   109.200
115   1.128   1.052   1.118   103.423   112.840   110.261
116   1.127   1.058   1.121   105.661   111.535   111.216
117   1.118   1.081   1.117   108.081   109.956   112.039
118   1.101   1.112   1.106   110.475   108.283   112.681
119   1.083   1.139   1.092   112.712   106.699   113.096
120   1.068   1.155   1.080   114.723   105.363   113.253
121   1.062   1.156   1.073   116.462   104.399   113.164
122   1.067   1.140   1.073   117.866   103.878   112.858
123   1.081   1.112   1.081   118.828   103.802   112.378
124   1.099   1.080   1.094   119.214   104.129   111.780
125   1.115   1.054   1.108   118.895   104.783   111.142
126   1.123   1.044   1.118   117.808   105.676   110.542
127   1.123   1.055   1.122   116.001   106.716   110.026
128   1.113   1.083   1.119   113.636   107.828   109.604
129   1.099   1.116   1.109   110.943   108.964   109.250
130   1.084   1.143   1.095   108.150   110.105   108.940
131   1.074   1.158   1.082   105.476   111.237   108.655
132   1.072   1.155   1.073   103.130   112.341   108.385
133   1.079   1.134   1.072   101.285   113.359   108.112
134   1.092   1.101   1.080   100.071   114.184   107.818
135   1.108   1.066   1.093   99.567   114.689   107.502
136   1.121   1.042   1.106   99.799   114.783   107.198
137   1.128   1.039   1.116   100.724   114.433   106.952
138   1.126   1.059   1.119   102.210   113.688   106.795
139   1.117   1.095   1.114   104.077   112.653   106.734
140   1.102   1.132   1.104   106.165   111.445   106.769
141   1.085   1.160   1.091   108.367   110.178   106.906
142   1.073   1.171   1.080   110.613   108.952   107.172
143   1.068   1.162   1.074   112.839   107.842   107.587
144   1.073   1.136   1.075   114.953   106.889   108.147
145   1.085   1.100   1.083   116.819   106.096   108.823
146   1.101   1.063   1.095   118.256   105.461   109.589
147   1.113   1.040   1.107   119.061   104.991   110.437
148   1.119   1.039   1.116   119.066   104.721   111.362
149   1.117   1.062   1.119   118.226   104.698   112.325
150   1.108   1.098   1.114   116.649   104.962   113.252
151   1.094   1.134   1.104   114.534   105.532   114.051
152   1.082   1.159   1.092   112.101   106.404   114.633
153   1.074   1.168   1.080   109.572   107.551   114.923
154   1.073   1.157   1.074   107.145   108.902   114.862
155   1.080   1.130   1.076   104.983   110.336   114.404
156   1.092   1.092   1.085   103.200   111.681   113.554
157   1.105   1.055   1.098   101.885   112.758   112.367
158   1.116   1.035   1.111   101.113   113.429   110.948
159   1.121   1.039   1.119   100.930   113.651   109.402
160   1.120   1.066   1.120   101.329   113.484   107.806
161   1.112   1.104   1.114   102.244   113.044   106.219
162   1.100   1.140   1.103   103.586   112.457   104.714
163   1.088   1.163   1.090   105.275   111.824   103.399
164   1.079   1.167   1.079   107.238   111.224   102.404
165   1.077   1.152   1.074   109.387   110.688   101.847
166   1.082   1.120   1.076   111.605   110.190   101.795
167   1.092   1.081   1.085   113.737   109.662   102.267
168   1.104   1.049   1.098   115.589   109.037   103.246
169   1.113   1.035   1.110   116.931   108.289   104.704
170   1.116   1.047   1.118   117.566   107.463   106.575
171   1.113   1.079   1.119   117.417   106.661   108.754
172   1.105   1.117   1.114   116.547   105.999   111.100
173   1.094   1.150   1.104   115.109   105.575   113.461
174   1.084   1.167   1.091   113.293   105.459   115.679
175   1.079   1.166   1.080   111.299   105.688   117.589
176   1.079   1.146   1.074   109.307   106.254   119.019
177   1.084   1.111   1.076   107.449   107.088   119.816
178   1.092   1.072   1.084   105.821   108.066   119.900
179   1.101   1.042   1.097   104.489   109.029   119.279
180   1.108   1.033   1.110   103.520   109.827   118.041
181   1.111   1.050   1.118   102.980   110.385   116.276
182   1.109   1.085   1.120   102.911   110.714   114.064
183   1.104   1.124   1.116   103.314   110.884   111.494
184   1.096   1.155   1.107   104.157   110.975   108.690
185   1.089   1.169   1.096   105.386   111.062   105.829
186   1.085   1.162   1.086   106.933   111.198   103.123
187   1.085   1.137   1.080   108.691   111.393   100.789
188   1.090   1.098   1.080   110.526   111.604   99.016
189   1.098   1.058   1.086   112.266   111.742   97.959
190   1.107   1.032   1.095   113.723   111.713   97.718
191   1.112   1.032   1.105   114.701   111.456   98.335
192   1.113   1.058   1.111   115.067   110.979   99.769
193   1.109   1.098   1.113   114.801   110.349   101.908
194   1.103   1.137   1.110   113.988   109.652   104.601
195   1.096   1.164   1.104   112.772   108.965   107.679
196   1.091   1.173   1.096   111.325   108.350   110.954
197   1.088   1.160   1.088   109.820   107.844   114.207
198   1.089   1.130   1.084   108.406   107.457   117.189
199   1.092   1.090   1.084   107.194   107.173   119.661
